File: Force Calculations/Tensile Testing Results/Braided - 1.csv
Time,Displacement,Force
(s),(mm),(kN)
"0.0000","0.0000","0.0000"
"1.4000","2.3368","0.0085"
"2.8000","4.6703","0.0143"
"4.2000","7.0032","0.0188"
"5.6000","9.3368","0.0221"
"7.0000","11.6700","0.0235"
"8.4000","14.0035","0.0256"
"9.8000","16.3367","0.0271"
"11.2000","18.6701","0.0284"
"12.6000","21.0032","0.0294"
"14.0000","23.3368","0.0300"
"15.4000","25.6700","0.0305"
"16.8000","28.0031","0.0312"
"18.2000","30.3368","0.0320"
"19.6000","32.6700","0.0326"
"21.0000","35.0032","0.0332"
"22.4000","37.3368","0.0336"
"23.8000","39.6699","0.0340"
"25.2000","42.0036","0.0345"
"26.6000","44.3365","0.0348"
"28.0000","46.6701","0.0350"
"29.4000","49.0035","0.0346"
"30.8000","51.3368","0.0347"
"32.2000","53.6700","0.0346"
"33.6000","56.0035","0.0353"
"35.0000","58.3367","0.0359"
"36.4000","60.6704","0.0363"
"37.8000","63.0032","0.0368"
"39.2000","65.3368","0.0371"
"40.6000","67.6701","0.0375"
"42.0000","70.0035","0.0379"
"43.4000","72.3367","0.0382"
"44.8000","74.6701","0.0385"
"46.2000","77.0033","0.0387"
"47.6000","79.3368","0.0388"
"49.0000","81.6700","0.0383"
"50.4000","84.0035","0.0384"
"51.8000","86.3368","0.0390"
"53.2000","88.6701","0.0396"
"54.6000","91.0032","0.0400"
"56.0000","93.3369","0.0404"
"57.4000","95.6700","0.0408"
"58.8000","98.0036","0.0412"
"60.2000","100.3365","0.0415"
"61.6000","102.6701","0.0416"
"63.0000","105.0033","0.0411"
"64.4000","107.3367","0.0415"
"65.8000","109.6700","0.0420"
"67.2000","112.0035","0.0426"
"68.6000","114.3367","0.0431"
"70.0000","116.6701","0.0436"
"71.4000","119.0032","0.0442"
"72.8000","121.3369","0.0447"
"74.2000","123.6700","0.0453"
"75.6000","126.0034","0.0459"
"77.0000","128.3366","0.0465"
"78.4000","130.6700","0.0471"
"79.8000","133.0033","0.0474"
"81.2000","135.3368","0.0473"
"82.6000","137.6700","0.0462"
"84.0000","140.0034","0.0461"
"85.4000","142.3368","0.0463"
"86.8000","144.6701","0.0470"
"88.2000","147.0033","0.0478"
"89.6000","149.3368","0.0486"
"91.0000","151.6700","0.0494"
"92.4000","154.0034","0.0500"
"93.8000","156.3365","0.0505"
"95.2000","158.6701","0.0505"
"96.6000","161.0034","0.0494"
"98.0000","163.3366","0.0475"
"99.4000","165.6701","0.0472"
"100.8000","168.0034","0.0475"
"102.2000","170.3365","0.0480"
"103.6000","172.6702","0.0489"
"105.0000","175.0033","0.0500"
"106.4000","177.3368","0.0511"
"107.8000","179.6700","0.0517"
"109.2000","182.0034","0.0515"
"110.6000","184.3366","0.0470"
"112.0000","186.6700","0.0481"
"113.4000","189.0033","0.0491"
"114.8000","191.3368","0.0500"
"116.2000","193.6700","0.0505"
"117.6000","196.0034","0.0499"
"119.0000","198.3366","0.0501"
"120.4000","200.6701","0.0511"
"121.8000","203.0033","0.0521"
"123.2000","205.3368","0.0531"
"124.6000","207.6700","0.0540"
"126.0000","210.0036","0.0548"
"127.4000","212.3365","0.0555"
"128.8000","214.6701","0.0561"
"130.2000","217.0033","0.0569"
"131.6000","219.3366","0.0574"
"133.0000","221.6700","0.0570"
"134.4000","224.0034","0.0561"
"135.8000","226.3365","0.0558"
"137.2000","228.6702","0.0563"
"138.6000","231.0032","0.0570"
"140.0000","233.3368","0.0578"
"141.4000","235.6700","0.0586"
"142.8000","238.0034","0.0595"
"144.2000","240.3366","0.0603"
"145.6000","242.6700","0.0611"
"147.0000","245.0033","0.0618"
"148.4000","247.3368","0.0625"
"149.8000","249.6700","0.0632"
"151.2000","252.0036","0.0638"
"152.6000","254.3367","0.0642"
"154.0000","256.6701","0.0638"
"155.4000","259.0033","0.0643"
"156.8000","261.3369","0.0657"
"158.2000","263.6700","0.0670"
"159.6000","266.0035","0.0678"
"161.0000","268.3366","0.0683"
"162.4000","270.6701","0.0670"
"163.8000","273.0035","0.0639"
"165.2000","275.3367","0.0623"
"166.6000","277.6701","0.0633"
"168.0000","280.0034","0.0655"
"169.4000","282.3366","0.0674"
"170.8000","284.6702","0.0683"
"172.2000","287.0032","0.0686"
"173.6000","289.3369","0.0692"
"175.0000","291.6699","0.0693"
"176.4000","294.0035","0.0666"
"177.8000","296.3366","0.0652"
"179.2000","298.6701","0.0653"
"180.6000","301.0034","0.0659"
"182.0000","303.3369","0.0665"
"183.4000","305.6699","0.0673"
"184.8000","308.0034","0.0681"
"186.2000","310.3367","0.0687"
"187.6000","312.6701","0.0688"
"189.0000","315.0033","0.0687"
"190.4000","317.3367","0.0690"
"191.8000","319.6700","0.0695"
"193.2000","322.0035","0.0698"
"194.6000","324.3366","0.0700"
"196.0000","326.6700","0.0698"
"197.4000","329.0034","0.0700"
"198.8000","331.3366","0.0710"
"200.2000","333.6701","0.0726"
"201.6000","336.0033","0.0745"
"203.0000","338.3366","0.0763"
"204.4000","340.6702","0.0776"
"205.8000","343.0031","0.0781"
"207.2000","345.3367","0.0779"
"208.6000","347.6701","0.0793"
"210.0000","350.0034","0.0807"
"211.4000","352.3366","0.0821"
"212.8000","354.6701","0.0835"
"214.2000","357.0033","0.0848"
"215.6000","359.3367","0.0859"
"217.0000","361.6700","0.0869"
"218.4000","364.0034","0.0877"
"219.8000","366.3369","0.0883"
"221.2000","368.6701","0.0890"
"222.6000","371.0033","0.0897"
"224.0000","373.3367","0.0903"
"225.4000","375.6700","0.0908"
"226.8000","378.0034","0.0910"
"228.2000","380.3366","0.0913"
"229.6000","382.6701","0.0913"
"231.0000","385.0034","0.0911"
"232.4000","387.3368","0.0913"
"233.8000","389.6700","0.0913"
"235.2000","392.0034","0.0899"
"236.6000","394.3366","0.0901"
"238.0000","396.6702","0.0911"
"239.4000","399.0031","0.0930"
"240.8000","401.3369","0.0951"
"242.2000","403.6700","0.0964"
"243.6000","406.0034","0.0980"
"245.0000","408.3368","0.0992"
"246.4000","410.6701","0.1003"
"247.8000","413.0034","0.1009"
"249.2000","415.3368","0.0965"
"250.6000","417.6701","0.0893"
"252.0000","420.0034","0.0899"
"253.4000","422.3366","0.0921"
"254.8000","424.6701","0.0942"
"256.2000","427.0033","0.0967"
"257.6000","429.3368","0.0992"
"259.0000","431.6700","0.1015"
"260.4000","434.0035","0.1033"
"261.8000","436.3366","0.1046"
"263.2000","438.6700","0.1049"
"264.6000","441.0034","0.1055"
"266.0000","443.3368","0.1065"
"267.4000","445.6701","0.1065"
"268.8000","448.0034","0.1074"
"270.2000","450.3365","0.1083"
"271.6000","452.6701","0.1092"
"273.0000","455.0033","0.1099"
"274.4000","457.3368","0.1102"
"275.8000","459.6700","0.1108"
"277.2000","462.0034","0.1125"
"278.6000","464.3366","0.1142"
"280.0000","466.6701","0.1154"
"281.4000","469.0033","0.1150"
"282.8000","471.3368","0.1125"
"284.2000","473.6700","0.1134"
"285.6000","476.0034","0.1158"
"287.0000","478.3366","0.1185"
"288.4000","480.6701","0.1215"
"289.8000","483.0033","0.1242"
"291.2000","485.3368","0.1265"
"292.6000","487.6700","0.1284"
"294.0000","490.0036","0.1301"
"295.4000","492.3366","0.1314"
"296.8000","494.6700","0.1319"
"298.2000","497.0034","0.1323"
"299.6000","499.3366","0.1329"
"301.0000","501.6699","0.1336"
"302.4000","504.0034","0.1341"
"303.8000","506.3367","0.1348"
"305.2000","508.6702","0.1354"
"306.6000","511.0031","0.1365"
"308.0000","513.3367","0.1374"
"309.4000","515.6700","0.1374"
"310.8000","518.0034","0.1356"
"312.2000","520.3365","0.1275"
"313.6000","522.6700","0.1241"
"315.0000","525.0032","0.1228"
"316.4000","527.3369","0.1177"
"317.8000","529.6699","0.1162"
"319.2000","532.0034","0.1178"
"320.6000","534.3367","0.1187"
"322.0000","536.6700","0.1171"
"323.4000","539.0032","0.1043"
"324.8000","541.3369","0.0935"
"326.2000","543.6699","0.0977"
"327.6000","546.0035","0.1041"
"329.0000","548.3365","0.1113"
"330.4000","550.6700","0.1187"
"331.8000","553.0034","0.1262"
"333.2000","555.3365","0.1335"
"334.6000","557.6700","0.1405"
"336.0000","560.0032","0.1466"
"337.4000","562.3365","0.1523"
"338.8000","564.6702","0.1570"
"340.2000","567.0034","0.1611"
"341.6000","569.3367","0.1644"
"343.0000","571.6699","0.1673"
"344.4000","574.0035","0.1696"
"345.8000","576.3365","0.1716"
"347.2000","578.6702","0.1733"
"348.6000","581.0032","0.1749"
"350.0000","583.3369","0.1762"
"351.4000","585.6699","0.1773"
"352.8000","588.0034","0.1784"
"354.2000","590.3367","0.1795"
"355.6000","592.6699","0.1808"
"357.0000","595.0032","0.1822"
"358.4000","597.3367","0.1836"
"359.8000","599.6699","0.1852"
"361.2000","602.0035","0.1867"
"362.6000","604.3365","0.1883"
"364.0000","606.6699","0.1897"
"365.4000","609.0034","0.1909"
"366.8000","611.3366","0.1918"
"368.2000","613.6700","0.1078"
"369.6000","616.0034","0.0894"
"371.0000","618.3365","0.0928"
"372.4000","620.6702","0.0982"
"373.8000","623.0032","0.1039"
"375.2000","625.3369","0.1097"
"376.6000","627.6699","0.1155"
"378.0000","630.0034","0.1210"
"379.4000","632.3365","0.1261"
"380.8000","634.6702","0.1304"
"382.2000","637.0031","0.1339"
"383.6000","639.3367","0.1363"
"385.0000","641.6697","0.1376"
"386.4000","644.0034","0.1377"
"387.8000","646.3367","0.1366"
"389.2000","648.6700","0.1352"
"390.6000","651.0032","0.1352"
"392.0000","653.3366","0.1364"
"392.8680","654.7836","0.0801"