File: Force Calculations/Tensile Testing Results/Braided Nylon - 1.csv
Time,Displacement,Force
(s),(mm),(kN)
"0.0000","0.0001","0.0000"
"0.3000","0.4928","0.0041"
"0.6000","1.0017","0.0089"
"0.9000","1.5032","0.0140"
"1.2000","2.0033","0.0193"
"1.5000","2.5033","0.0246"
"1.8000","3.0035","0.0291"
"2.1000","3.5033","0.0324"
"2.4000","4.0032","0.0352"
"2.7000","4.5033","0.0382"
"3.0000","5.0036","0.0412"
"3.3000","5.5036","0.0441"
"3.6000","6.0033","0.0474"
"3.9000","6.5035","0.0509"
"4.2000","7.0035","0.0551"
"4.5000","7.5033","0.0570"
"4.8000","8.0032","0.0573"
"5.1000","8.5033","0.0562"
"5.4000","9.0035","0.0581"
"5.7000","9.5035","0.0589"
"6.0000","10.0032","0.0598"
"6.3000","10.5035","0.0600"
"6.6000","11.0036","0.0604"
"6.9000","11.5033","0.0601"
"7.2000","12.0033","0.0606"
"7.5000","12.5035","0.0608"
"7.8000","13.0036","0.0614"
"8.1000","13.5036","0.0615"
"8.4000","14.0035","0.0620"
"8.7000","14.5035","0.0624"
"9.0000","15.0035","0.0628"
"9.3000","15.5035","0.0629"
"9.6000","16.0032","0.0636"
"9.9000","16.5032","0.0645"
"10.2000","17.0035","0.0656"
"10.5000","17.5035","0.0657"
"10.8000","18.0032","0.0669"
"11.1000","18.5035","0.0673"
"11.4000","19.0035","0.0681"
"11.7000","19.5033","0.0686"
"12.0000","20.0032","0.0698"
"12.3000","20.5035","0.0701"
"12.6000","21.0036","0.0709"
"12.9000","21.5036","0.0708"
"13.2000","22.0035","0.0714"
"13.5000","22.5035","0.0720"
"13.8000","23.0035","0.0721"
"14.1000","23.5035","0.0727"
"14.4000","24.0032","0.0726"
"14.7000","24.5033","0.0731"
"15.0000","25.0035","0.0737"
"15.3000","25.5035","0.0729"
"15.6000","26.0032","0.0717"
"15.9000","26.5035","0.0724"
"16.2000","27.0035","0.0702"
"16.5000","27.5035","0.0695"
"16.8000","28.0032","0.0705"
"17.1000","28.5035","0.0699"
"17.4000","29.0037","0.0700"
"17.7000","29.5036","0.0707"
"18.0000","30.0035","0.0716"
"18.3000","30.5035","0.0704"
"18.6000","31.0035","0.0708"
"18.9000","31.5033","0.0732"
"19.2000","32.0031","0.0750"
"19.5000","32.5033","0.0759"
"19.8000","33.0035","0.0765"
"20.1000","33.5035","0.0765"
"20.4000","34.0033","0.0760"
"20.7000","34.5035","0.0767"
"21.0000","35.0035","0.0788"
"21.3000","35.5035","0.0796"
"21.6000","36.0033","0.0796"
"21.9000","36.5033","0.0794"
"22.2000","37.0036","0.0791"
"22.5000","37.5036","0.0783"
"22.8000","38.0033","0.0779"
"23.1000","38.5035","0.0786"
"23.4000","39.0036","0.0794"
"23.7000","39.5035","0.0802"
"24.0000","40.0032","0.0810"
"24.3000","40.5033","0.0812"
"24.6000","41.0035","0.0814"
"24.9000","41.5035","0.0818"
"25.2000","42.0033","0.0825"
"25.5000","42.5033","0.0829"
"25.8000","43.0035","0.0833"
"26.1000","43.5035","0.0831"
"26.4000","44.0032","0.0831"
"26.7000","44.5035","0.0835"
"27.0000","45.0036","0.0835"
"27.3000","45.5036","0.0836"
"27.6000","46.0033","0.0837"
"27.9000","46.5035","0.0838"
"28.2000","47.0035","0.0842"
"28.5000","47.5035","0.0842"
"28.8000","48.0032","0.0846"
"29.1000","48.5033","0.0852"
"29.4000","49.0036","0.0853"
"29.7000","49.5035","0.0860"
"30.0000","50.0033","0.0864"
"30.3000","50.5035","0.0858"
"30.6000","51.0036","0.0872"
"30.9000","51.5035","0.0884"
"31.2000","52.0033","0.0891"
"31.5000","52.5035","0.0892"
"31.8000","53.0036","0.0894"
"32.1000","53.5035","0.0887"
"32.4000","54.0035","0.0898"
"32.7000","54.5035","0.0919"
"33.0000","55.0035","0.0927"
"33.3000","55.5035","0.0919"
"33.6000","56.0032","0.0918"
"33.9000","56.5033","0.0926"
"34.2000","57.0035","0.0937"
"34.5000","57.5033","0.0952"
"34.8000","58.0033","0.0958"
"35.1000","58.5035","0.0951"
"35.4000","59.0036","0.0954"
"35.7000","59.5035","0.0971"
"36.0000","60.0033","0.0985"
"36.3000","60.5035","0.0991"
"36.6000","61.0036","0.0989"
"36.9000","61.5036","0.0973"
"37.2000","62.0033","0.0961"
"37.5000","62.5035","0.0962"
"37.8000","63.0036","0.0975"
"38.1000","63.5033","0.0988"
"38.4000","64.0031","0.0992"
"38.7000","64.5033","0.0982"
"39.0000","65.0035","0.0974"
"39.3000","65.5035","0.0981"
"39.6000","66.0032","0.0993"
"39.9000","66.5033","0.1000"
"40.2000","67.0034","0.1001"
"40.5000","67.5034","0.1006"
"40.8000","68.0032","0.1015"
"41.1000","68.5035","0.1020"
"41.4000","69.0037","0.1020"
"41.7000","69.5036","0.1004"
"42.0000","70.0035","0.0999"
"42.3000","70.5036","0.1010"
"42.6000","71.0037","0.1030"
"42.9000","71.5035","0.1035"
"43.2000","72.0032","0.1010"
"43.5000","72.5033","0.1008"
"43.8000","73.0035","0.1032"
"44.1000","73.5035","0.1027"
"44.4000","74.0032","0.1005"
"44.7000","74.5033","0.1017"
"45.0000","75.0035","0.1019"
"45.3000","75.5035","0.1020"
"45.6000","76.0035","0.1009"
"45.9000","76.5035","0.0993"
"46.2000","77.0036","0.0984"
"46.5000","77.5034","0.0987"
"46.8000","78.0033","0.1009"
"47.1000","78.5034","0.1010"
"47.4000","79.0035","0.0976"
"47.7000","79.5035","0.0994"
"48.0000","80.0033","0.1023"
"48.3000","80.5033","0.1011"
"48.6000","81.0034","0.0966"
"48.9000","81.5034","0.0992"
"49.2000","82.0032","0.1016"
"49.5000","82.5035","0.0972"
"49.8000","83.0036","0.0980"
"50.1000","83.5035","0.1010"
"50.4000","84.0033","0.1032"
"50.7000","84.5035","0.1027"
"51.0000","85.0037","0.0971"
"51.3000","85.5034","0.1003"
"51.6000","86.0035","0.1037"
"51.9000","86.5035","0.1050"
"52.2000","87.0036","0.1015"
"52.5000","87.5035","0.1022"
"52.8000","88.0033","0.1031"
"53.1000","88.5033","0.1034"
"53.4000","89.0036","0.1059"
"53.7000","89.5034","0.1044"
"54.0000","90.0033","0.1028"
"54.3000","90.5033","0.1057"
"54.6000","91.0035","0.1075"
"54.9000","91.5035","0.1074"
"55.2000","92.0033","0.1043"
"55.5000","92.5034","0.1066"
"55.8000","93.0037","0.1079"
"56.1000","93.5036","0.1098"
"56.4000","94.0033","0.1103"
"56.7000","94.5035","0.1091"
"57.0000","95.0035","0.1088"
"57.3000","95.5033","0.1078"
"57.6000","96.0033","0.1079"
"57.9000","96.5033","0.1094"
"58.2000","97.0036","0.1112"
"58.5000","97.5035","0.1138"
"58.8000","98.0033","0.1161"
"59.1000","98.5035","0.1166"
"59.4000","99.0035","0.1145"
"59.7000","99.5036","0.1134"
"60.0000","100.0033","0.1121"
"60.3000","100.5034","0.1145"
"60.6000","101.0036","0.1186"
"60.9000","101.5035","0.1231"
"61.2000","102.0033","0.1271"
"61.5000","102.5033","0.1272"
"61.8000","103.0034","0.1151"
"62.1000","103.5033","0.1204"
"62.4000","104.0033","0.1266"
"62.7000","104.5033","0.1291"
"63.0000","105.0036","0.1189"
"63.3000","105.5035","0.1184"
"63.6000","106.0032","0.1248"
"63.9000","106.5033","0.1287"
"64.2000","107.0036","0.1288"
"64.5000","107.5034","0.1184"
"64.8000","108.0033","0.1173"
"65.1000","108.5035","0.1225"
"65.4000","109.0037","0.1152"
"65.7000","109.5036","0.1149"
"66.0000","110.0035","0.1197"
"66.3000","110.5033","0.1209"
"66.6000","111.0034","0.1131"
"66.9000","111.5033","0.1178"
"67.2000","112.0031","0.1233"
"67.5000","112.5033","0.1266"
"67.8000","113.0036","0.1285"
"68.1000","113.5035","0.1200"
"68.4000","114.0033","0.1262"
"68.7000","114.5034","0.1312"
"69.0000","115.0034","0.1360"
"69.3000","115.5035","0.1398"
"69.6000","116.0033","0.1293"
"69.9000","116.5036","0.1235"
"70.2000","117.0037","0.1298"
"70.5000","117.5036","0.1353"
"70.8000","118.0033","0.1253"
"71.1000","118.5034","0.1207"
"71.4000","119.0036","0.1234"
"71.7000","119.5033","0.1301"
"72.0000","120.0032","0.1331"
"72.3000","120.5035","0.1377"
"72.6000","121.0036","0.1392"
"72.9000","121.5034","0.1419"
"73.2000","122.0033","0.1441"
"73.5000","122.5033","0.1451"
"73.8000","123.0035","0.1500"
"74.1000","123.5035","0.1547"
"74.4000","124.0032","0.1567"
"74.7000","124.5033","0.1549"
"75.0000","125.0037","0.1551"
"75.3000","125.5036","0.1607"
"75.6000","126.0034","0.1657"
"75.9000","126.5034","0.1710"
"76.2000","127.0036","0.1767"
"76.5000","127.5033","0.1825"
"76.8000","128.0032","0.1875"
"77.1000","128.5034","0.1926"
"77.4000","129.0036","0.1975"
"77.7000","129.5036","0.2020"
"78.0000","130.0033","0.2058"
"78.3000","130.5034","0.2096"
"78.6000","131.0036","0.2082"
"78.9000","131.5034","0.1954"
"79.2000","132.0033","0.2040"
"79.5000","132.5034","0.2151"
"79.8000","133.0036","0.2246"
"80.1000","133.5036","0.2327"
"80.2200","133.7042","0.1302"