File: Force Calculations/Tensile Testing Results/Braided Nylon - 2.csv
Time,Displacement,Force
(s),(mm),(kN)
"0.0000","0.0000","-0.0004"
"0.2000","0.3161","0.0146"
"0.4000","0.6636","0.0202"
"0.6000","1.0015","0.0234"
"0.8000","1.3361","0.0251"
"1.0000","1.6699","0.0275"
"1.2000","2.0032","0.0302"
"1.4000","2.3365","0.0330"
"1.6000","2.6697","0.0352"
"1.8000","3.0032","0.0371"
"2.0000","3.3365","0.0376"
"2.2000","3.6699","0.0396"
"2.4000","4.0032","0.0428"
"2.6000","4.3367","0.0450"
"2.8000","4.6700","0.0470"
"3.0000","5.0035","0.0485"
"3.2000","5.3367","0.0494"
"3.4000","5.6700","0.0499"
"3.6000","6.0033","0.0513"
"3.8000","6.3365","0.0541"
"4.0000","6.6699","0.0551"
"4.2000","7.0032","0.0557"
"4.4000","7.3365","0.0555"
"4.6000","7.6701","0.0548"
"4.8000","8.0032","0.0563"
"5.0000","8.3367","0.0573"
"5.2000","8.6700","0.0572"
"5.4000","9.0033","0.0559"
"5.6000","9.3367","0.0528"
"5.8000","9.6700","0.0536"
"6.0000","10.0032","0.0558"
"6.2000","10.3367","0.0566"
"6.4000","10.6697","0.0567"
"6.6000","11.0032","0.0569"
"6.8000","11.3367","0.0558"
"7.0000","11.6699","0.0556"
"7.2000","12.0033","0.0564"
"7.4000","12.3367","0.0580"
"7.6000","12.6699","0.0590"
"7.8000","13.0035","0.0600"
"8.0000","13.3365","0.0597"
"8.2000","13.6700","0.0589"
"8.4000","14.0035","0.0584"
"8.6000","14.3365","0.0595"
"8.8000","14.6699","0.0612"
"9.0000","15.0033","0.0611"
"9.2000","15.3365","0.0595"
"9.4000","15.6701","0.0590"
"9.6000","16.0032","0.0610"
"9.8000","16.3365","0.0622"
"10.0000","16.6700","0.0630"
"10.2000","17.0033","0.0625"
"10.4000","17.3367","0.0621"
"10.6000","17.6701","0.0625"
"10.8000","18.0032","0.0632"
"11.0000","18.3365","0.0622"
"11.2000","18.6697","0.0619"
"11.4000","19.0032","0.0622"
"11.6000","19.3365","0.0632"
"11.8000","19.6700","0.0645"
"12.0000","20.0032","0.0656"
"12.2000","20.3367","0.0664"
"12.4000","20.6699","0.0674"
"12.6000","21.0035","0.0667"
"12.8000","21.3365","0.0644"
"13.0000","21.6700","0.0640"
"13.2000","22.0033","0.0668"
"13.4000","22.3365","0.0686"
"13.6000","22.6699","0.0688"
"13.8000","23.0033","0.0678"
"14.0000","23.3365","0.0663"
"14.2000","23.6700","0.0665"
"14.4000","24.0032","0.0679"
"14.6000","24.3367","0.0677"
"14.8000","24.6700","0.0674"
"15.0000","25.0033","0.0684"
"15.2000","25.3368","0.0695"
"15.4000","25.6700","0.0707"
"15.6000","26.0031","0.0715"
"15.8000","26.3367","0.0701"
"16.0000","26.6699","0.0704"
"16.2000","27.0033","0.0728"
"16.4000","27.3367","0.0731"
"16.6000","27.6699","0.0731"
"16.8000","28.0032","0.0726"
"17.0000","28.3367","0.0700"
"17.2000","28.6699","0.0707"
"17.4000","29.0036","0.0731"
"17.6000","29.3365","0.0732"
"17.8000","29.6700","0.0724"
"18.0000","30.0033","0.0726"
"18.2000","30.3367","0.0735"
"18.4000","30.6699","0.0745"
"18.6000","31.0035","0.0745"
"18.8000","31.3365","0.0738"
"19.0000","31.6700","0.0735"
"19.2000","32.0032","0.0743"
"19.4000","32.3367","0.0758"
"19.6000","32.6700","0.0767"
"19.8000","33.0033","0.0758"
"20.0000","33.3367","0.0757"
"20.2000","33.6701","0.0755"
"20.4000","34.0032","0.0756"
"20.6000","34.3367","0.0762"
"20.8000","34.6699","0.0769"
"21.0000","35.0032","0.0778"
"21.2000","35.3367","0.0785"
"21.4000","35.6699","0.0789"
"21.6000","36.0033","0.0793"
"21.8000","36.3367","0.0791"
"22.0000","36.6700","0.0786"
"22.2000","37.0035","0.0786"
"22.4000","37.3365","0.0789"
"22.6000","37.6700","0.0793"
"22.8000","38.0033","0.0793"
"23.0000","38.3365","0.0794"
"23.2000","38.6699","0.0800"
"23.4000","39.0033","0.0802"
"23.6000","39.3364","0.0799"
"23.8000","39.6700","0.0794"
"24.0000","40.0032","0.0787"
"24.2000","40.3368","0.0784"
"24.4000","40.6701","0.0784"
"24.6000","41.0033","0.0784"
"24.8000","41.3367","0.0775"
"25.0000","41.6701","0.0773"
"25.2000","42.0032","0.0774"
"25.4000","42.3367","0.0785"
"25.6000","42.6697","0.0795"
"25.8000","43.0032","0.0808"
"26.0000","43.3365","0.0820"
"26.2000","43.6699","0.0833"
"26.4000","44.0032","0.0847"
"26.6000","44.3368","0.0853"
"26.8000","44.6699","0.0851"
"27.0000","45.0035","0.0845"
"27.2000","45.3367","0.0835"
"27.4000","45.6700","0.0831"
"27.6000","46.0033","0.0836"
"27.8000","46.3367","0.0842"
"28.0000","46.6699","0.0842"
"28.2000","47.0033","0.0846"
"28.4000","47.3365","0.0852"
"28.6000","47.6699","0.0857"
"28.8000","48.0032","0.0867"
"29.0000","48.3365","0.0877"
"29.2000","48.6700","0.0884"
"29.4000","49.0033","0.0884"
"29.6000","49.3367","0.0872"
"29.8000","49.6701","0.0853"
"30.0000","50.0032","0.0862"
"30.2000","50.3367","0.0885"
"30.4000","50.6699","0.0897"
"30.6000","51.0032","0.0907"
"30.8000","51.3367","0.0911"
"31.0000","51.6700","0.0907"
"31.2000","52.0033","0.0898"
"31.4000","52.3367","0.0891"
"31.6000","52.6699","0.0897"
"31.8000","53.0036","0.0910"
"32.0000","53.3365","0.0915"
"32.2000","53.6700","0.0898"
"32.4000","54.0033","0.0875"
"32.6000","54.3365","0.0878"
"32.8000","54.6699","0.0900"
"33.0000","55.0033","0.0924"
"33.2000","55.3364","0.0943"
"33.4000","55.6701","0.0953"
"33.6000","56.0033","0.0927"
"33.8000","56.3367","0.0880"
"34.0000","56.6700","0.0884"
"34.2000","57.0033","0.0880"
"34.4000","57.3365","0.0882"
"34.6000","57.6701","0.0870"
"34.8000","58.0032","0.0872"
"35.0000","58.3367","0.0903"
"35.2000","58.6700","0.0924"
"35.4000","59.0032","0.0914"
"35.6000","59.3367","0.0893"
"35.8000","59.6700","0.0889"
"36.0000","60.0032","0.0896"
"36.2000","60.3367","0.0921"
"36.4000","60.6699","0.0943"
"36.6000","61.0033","0.0953"
"36.8000","61.3367","0.0940"
"37.0000","61.6701","0.0926"
"37.2000","62.0033","0.0933"
"37.4000","62.3367","0.0947"
"37.6000","62.6698","0.0961"
"37.8000","63.0033","0.0981"
"38.0000","63.3365","0.0999"
"38.2000","63.6700","0.1010"
"38.4000","64.0032","0.1005"
"38.6000","64.3367","0.0989"
"38.8000","64.6700","0.0984"
"39.0000","65.0033","0.0988"
"39.2000","65.3367","0.0984"
"39.4000","65.6701","0.0989"
"39.6000","66.0032","0.1006"
"39.8000","66.3367","0.1024"
"40.0000","66.6697","0.1041"
"40.2000","67.0032","0.1058"
"40.4000","67.3367","0.1071"
"40.6000","67.6700","0.1072"
"40.8000","68.0033","0.1069"
"41.0000","68.3368","0.1076"
"41.2000","68.6699","0.1094"
"41.4000","69.0035","0.1114"
"41.6000","69.3367","0.1127"
"41.8000","69.6700","0.1130"
"42.0000","70.0033","0.1117"
"42.2000","70.3365","0.1090"
"42.4000","70.6699","0.1125"
"42.6000","71.0033","0.1162"
"42.8000","71.3364","0.1190"
"43.0000","71.6700","0.1215"
"43.2000","72.0032","0.1233"
"43.4000","72.3367","0.1233"
"43.6000","72.6700","0.1180"
"43.8000","73.0035","0.1148"
"44.0000","73.3367","0.1181"
"44.2000","73.6700","0.1218"
"44.4000","74.0032","0.1249"
"44.6000","74.3367","0.1276"
"44.8000","74.6697","0.1304"
"45.0000","75.0032","0.1342"
"45.2000","75.3366","0.1380"
"45.4000","75.6699","0.1407"
"45.6000","76.0033","0.1417"
"45.8000","76.3368","0.1381"
"46.0000","76.6700","0.1217"
"46.2000","77.0035","0.1243"
"46.4000","77.3365","0.1322"
"46.6000","77.6700","0.1380"
"46.8000","78.0032","0.1397"
"47.0000","78.3365","0.1377"
"47.2000","78.6700","0.1311"
"47.4000","79.0035","0.1164"
"47.6000","79.3365","0.1165"
"47.8000","79.6700","0.1237"
"48.0000","80.0032","0.1324"
"48.2000","80.3367","0.1375"
"48.4000","80.6700","0.1379"
"48.6000","81.0033","0.1338"
"48.8000","81.3368","0.1194"
"49.0000","81.6701","0.1179"
"49.2000","82.0031","0.1245"
"49.4000","82.3367","0.1287"
"49.6000","82.6699","0.1291"
"49.8000","83.0032","0.1311"
"50.0000","83.3367","0.1241"
"50.2000","83.6700","0.1159"
"50.4000","84.0033","0.1232"
"50.6000","84.3368","0.1300"
"50.8000","84.6699","0.1336"
"51.0000","85.0034","0.1331"
"51.2000","85.3367","0.1217"
"51.4000","85.6699","0.1244"
"51.6000","86.0033","0.1264"
"51.8000","86.3365","0.1282"
"52.0000","86.6699","0.1247"
"52.2000","87.0033","0.1155"
"52.4000","87.3365","0.1192"
"52.6000","87.6700","0.1253"
"52.8000","88.0032","0.1285"
"53.0000","88.3367","0.1271"
"53.2000","88.6700","0.1092"
"53.4000","89.0033","0.1168"
"53.6000","89.3365","0.1230"
"53.8000","89.6700","0.1260"
"54.0000","90.0033","0.1316"
"54.2000","90.3366","0.1359"
"54.4000","90.6699","0.1399"
"54.6000","91.0032","0.1475"
"54.8000","91.3365","0.1547"
"55.0000","91.6699","0.1606"
"55.2000","92.0032","0.1666"
"55.4000","92.3367","0.1732"
"55.6000","92.6697","0.1794"
"55.8000","93.0033","0.1848"
"56.0000","93.3365","0.1902"
"56.2000","93.6700","0.1945"
"56.4000","94.0033","0.1955"
"56.6000","94.3365","0.1801"
"56.8000","94.6700","0.1838"
"57.0000","95.0033","0.1914"
"57.2000","95.3364","0.1973"
"57.4000","95.6701","0.2015"
"57.6000","96.0032","0.2042"
"57.8000","96.3367","0.2059"
"58.0000","96.6700","0.2043"
"58.2000","97.0033","0.1811"
"58.4000","97.3366","0.1918"
"58.6000","97.6700","0.2014"
"58.8000","98.0031","0.2104"
"59.0000","98.3367","0.2191"
"59.2000","98.6697","0.2270"
"59.4000","99.0032","0.2332"
"59.5040","99.1773","0.1369"