File: Force Calculations/Tensile Testing Results/Braided - 2.csv
Time,Displacement,Force
(s),(mm),(kN)
"0.0000","0.0000","-0.0005"
"1.1000","1.8363","0.0084"
"2.2000","3.6699","0.0104"
"3.3000","5.5035","0.0125"
"4.4000","7.3365","0.0147"
"5.5000","9.1697","0.0162"
"6.6000","11.0031","0.0175"
"7.7000","12.8368","0.0184"
"8.8000","14.6697","0.0195"
"9.9000","16.5032","0.0204"
"11.0000","18.3365","0.0211"
"12.1000","20.1700","0.0216"
"13.2000","22.0033","0.0220"
"14.3000","23.8363","0.0220"
"15.4000","25.6701","0.0223"
"16.5000","27.5032","0.0225"
"17.6000","29.3368","0.0226"
"18.7000","31.1696","0.0230"
"19.8000","33.0033","0.0236"
"20.9000","34.8365","0.0241"
"22.0000","36.6699","0.0248"
"23.1000","38.5031","0.0253"
"24.2000","40.3365","0.0254"
"25.3000","42.1703","0.0250"
"26.4000","44.0031","0.0248"
"27.5000","45.8365","0.0252"
"28.6000","47.6699","0.0256"
"29.7000","49.5035","0.0259"
"30.8000","51.3365","0.0261"
"31.9000","53.1697","0.0263"
"33.0000","55.0033","0.0266"
"34.1000","56.8367","0.0268"
"35.2000","58.6699","0.0269"
"36.3000","60.5031","0.0272"
"37.4000","62.3367","0.0275"
"38.5000","64.1700","0.0276"
"39.6000","66.0033","0.0277"
"40.7000","67.8364","0.0272"
"41.8000","69.6700","0.0253"
"42.9000","71.5033","0.0250"
"44.0000","73.3367","0.0252"
"45.1000","75.1699","0.0254"
"46.2000","77.0032","0.0256"
"47.3000","78.8367","0.0258"
"48.4000","80.6700","0.0261"
"49.5000","82.5031","0.0266"
"50.6000","84.3367","0.0271"
"51.7000","86.1700","0.0276"
"52.8000","88.0032","0.0279"
"53.9000","89.8364","0.0282"
"55.0000","91.6700","0.0281"
"56.1000","93.5033","0.0237"
"57.2000","95.3365","0.0236"
"58.3000","97.1699","0.0243"
"59.4000","99.0032","0.0253"
"60.5000","100.8368","0.0261"
"61.6000","102.6699","0.0268"
"62.7000","104.5032","0.0276"
"63.8000","106.3365","0.0283"
"64.9000","108.1700","0.0289"
"66.0000","110.0033","0.0294"
"67.1000","111.8363","0.0300"
"68.2000","113.6700","0.0304"
"69.3000","115.5032","0.0309"
"70.4000","117.3367","0.0314"
"71.5000","119.1696","0.0319"
"72.6000","121.0033","0.0324"
"73.7000","122.8365","0.0329"
"74.8000","124.6700","0.0333"
"75.9000","126.5030","0.0336"
"77.0000","128.3366","0.0341"
"78.1000","130.1701","0.0345"
"79.2000","132.0032","0.0347"
"80.3000","133.8365","0.0347"
"81.4000","135.6698","0.0338"
"82.5000","137.5034","0.0331"
"83.6000","139.3365","0.0335"
"84.7000","141.1697","0.0341"
"85.8000","143.0032","0.0347"
"86.9000","144.8366","0.0348"
"88.0000","146.6698","0.0347"
"89.1000","148.5030","0.0347"
"90.2000","150.3366","0.0349"
"91.3000","152.1700","0.0352"
"92.4000","154.0032","0.0346"
"93.5000","155.8365","0.0331"
"94.6000","157.6700","0.0343"
"95.7000","159.5033","0.0354"
"96.8000","161.3365","0.0361"
"97.9000","163.1697","0.0368"
"99.0000","165.0033","0.0372"
"100.1000","166.8366","0.0376"
"101.2000","168.6698","0.0381"
"102.3000","170.5030","0.0384"
"103.4000","172.3365","0.0385"
"104.5000","174.1700","0.0384"
"105.6000","176.0032","0.0382"
"106.7000","177.8364","0.0382"
"107.8000","179.6700","0.0383"
"108.9000","181.5033","0.0377"
"110.0000","183.3365","0.0381"
"111.1000","185.1697","0.0387"
"112.2000","187.0031","0.0393"
"113.3000","188.8368","0.0399"
"114.4000","190.6698","0.0402"
"115.5000","192.5032","0.0399"
"116.6000","194.3366","0.0404"
"117.7000","196.1701","0.0411"
"118.8000","198.0033","0.0418"
"119.9000","199.8362","0.0423"
"121.0000","201.6700","0.0425"
"122.1000","203.5032","0.0395"
"123.2000","205.3368","0.0402"
"124.3000","207.1696","0.0409"
"125.4000","209.0033","0.0415"
"126.5000","210.8366","0.0403"
"127.6000","212.6700","0.0392"
"128.7000","214.5030","0.0407"
"129.8000","216.3365","0.0418"
"130.9000","218.1701","0.0423"
"132.0000","220.0032","0.0424"
"133.1000","221.8364","0.0426"
"134.2000","223.6698","0.0429"
"135.3000","225.5034","0.0430"
"136.4000","227.3365","0.0430"
"137.5000","229.1697","0.0432"
"138.6000","231.0032","0.0431"
"139.7000","232.8365","0.0427"
"140.8000","234.6700","0.0423"
"141.9000","236.5029","0.0424"
"143.0000","238.3366","0.0429"
"144.1000","240.1700","0.0434"
"145.2000","242.0032","0.0438"
"146.3000","243.8364","0.0436"
"147.4000","245.6700","0.0436"
"148.5000","247.5034","0.0442"
"149.6000","249.3365","0.0447"
"150.7000","251.1697","0.0450"
"151.8000","253.0033","0.0445"
"152.9000","254.8366","0.0437"
"154.0000","256.6700","0.0440"
"155.1000","258.5029","0.0448"
"156.2000","260.3366","0.0456"
"157.3000","262.1700","0.0462"
"158.4000","264.0034","0.0468"
"159.5000","265.8364","0.0471"
"160.6000","267.6700","0.0470"
"161.7000","269.5034","0.0465"
"162.8000","271.3363","0.0464"
"163.9000","273.1698","0.0466"
"165.0000","275.0030","0.0470"
"166.1000","276.8368","0.0463"
"167.2000","278.6697","0.0463"
"168.3000","280.5031","0.0452"
"169.4000","282.3365","0.0441"
"170.5000","284.1700","0.0432"
"171.6000","286.0033","0.0351"
"172.7000","287.8362","0.0365"
"173.8000","289.6700","0.0372"
"174.9000","291.5033","0.0363"
"176.0000","293.3365","0.0358"
"177.1000","295.1696","0.0352"
"178.2000","297.0033","0.0366"
"179.3000","298.8366","0.0385"
"180.4000","300.6700","0.0401"
"181.5000","302.5030","0.0412"
"182.6000","304.3365","0.0414"
"183.7000","306.1702","0.0403"
"184.8000","308.0033","0.0408"
"185.9000","309.8365","0.0420"
"187.0000","311.6698","0.0429"
"188.1000","313.5034","0.0423"
"189.2000","315.3366","0.0413"
"190.3000","317.1697","0.0417"
"191.4000","319.0033","0.0431"
"192.5000","320.8366","0.0447"
"193.6000","322.6700","0.0463"
"194.7000","324.5030","0.0476"
"195.8000","326.3366","0.0487"
"196.9000","328.1700","0.0500"
"198.0000","330.0031","0.0512"
"199.1000","331.8363","0.0516"
"200.2000","333.6700","0.0490"
"201.3000","335.5034","0.0478"
"202.4000","337.3364","0.0486"
"203.5000","339.1697","0.0496"
"204.6000","341.0031","0.0495"
"205.7000","342.8367","0.0492"
"206.8000","344.6700","0.0499"
"207.9000","346.5030","0.0510"
"209.0000","348.3366","0.0520"
"210.1000","350.1701","0.0529"
"211.2000","352.0033","0.0536"
"212.3000","353.8364","0.0543"
"213.4000","355.6700","0.0553"
"214.5000","357.5033","0.0561"
"215.6000","359.3366","0.0570"
"216.7000","361.1697","0.0579"
"217.8000","363.0030","0.0586"
"218.9000","364.8368","0.0590"
"220.0000","366.6697","0.0584"
"221.1000","368.5031","0.0536"
"222.2000","370.3365","0.0533"
"223.3000","372.1700","0.0540"
"224.4000","374.0033","0.0548"
"225.5000","375.8363","0.0554"
"226.6000","377.6701","0.0560"
"227.7000","379.5033","0.0564"
"228.8000","381.3366","0.0566"
"229.9000","383.1695","0.0569"
"231.0000","385.0033","0.0571"
"232.1000","386.8366","0.0573"
"233.2000","388.6698","0.0574"
"234.3000","390.5030","0.0569"
"235.4000","392.3365","0.0547"
"236.5000","394.1701","0.0519"
"237.6000","396.0030","0.0453"
"238.7000","397.8364","0.0451"
"239.8000","399.6698","0.0462"
"240.9000","401.5034","0.0475"
"242.0000","403.3366","0.0488"
"243.1000","405.1696","0.0500"
"244.2000","407.0033","0.0512"
"245.3000","408.8366","0.0522"
"246.4000","410.6700","0.0533"
"247.5000","412.5029","0.0545"
"248.6000","414.3366","0.0557"
"249.7000","416.1701","0.0563"
"250.8000","418.0033","0.0561"
"251.9000","419.8365","0.0543"
"253.0000","421.6698","0.0551"
"254.1000","423.5034","0.0566"
"255.2000","425.3365","0.0582"
"256.3000","427.1698","0.0600"
"257.4000","429.0033","0.0617"
"258.5000","430.8366","0.0634"
"259.6000","432.6698","0.0651"
"260.7000","434.5030","0.0666"
"261.8000","436.3366","0.0680"
"262.9000","438.1701","0.0694"
"264.0000","440.0031","0.0706"
"265.1000","441.8364","0.0716"
"266.2000","443.6700","0.0725"
"267.3000","445.5033","0.0731"
"268.4000","447.3363","0.0733"
"269.5000","449.1698","0.0721"
"270.6000","451.0031","0.0692"
"271.7000","452.8369","0.0696"
"272.8000","454.6697","0.0712"
"273.9000","456.5030","0.0731"
"275.0000","458.3365","0.0747"
"276.1000","460.1701","0.0762"
"277.2000","462.0034","0.0774"
"278.3000","463.8363","0.0780"
"279.4000","465.6699","0.0778"
"280.5000","467.5034","0.0756"
"281.6000","469.3366","0.0741"
"282.7000","471.1695","0.0747"
"283.8000","473.0033","0.0755"
"284.9000","474.8365","0.0764"
"286.0000","476.6698","0.0765"
"287.1000","478.5030","0.0747"
"288.2000","480.3363","0.0747"
"289.3000","482.1701","0.0743"
"290.4000","484.0031","0.0718"
"291.5000","485.8366","0.0714"
"292.6000","487.6698","0.0734"
"293.7000","489.5034","0.0759"
"294.8000","491.3365","0.0786"
"295.9000","493.1697","0.0811"
"297.0000","495.0033","0.0835"
"298.1000","496.8366","0.0857"
"299.2000","498.6697","0.0875"
"300.3000","500.5028","0.0893"
"301.4000","502.3365","0.0908"
"302.5000","504.1699","0.0922"
"303.6000","506.0033","0.0934"
"304.7000","507.8363","0.0943"
"305.8000","509.6699","0.0951"
"306.9000","511.5033","0.0951"
"307.4920","512.4902","0.0486"