File: Force Calculations/Tensile Testing Results/Unbraided - 2.csv
Time,Displacement,Force
(s),(mm),(kN)
"0.0000","0.0000","0.0001"
"1.4000","2.3367","0.0077"
"2.8000","4.6700","0.0154"
"4.2000","7.0035","0.0211"
"5.6000","9.3365","0.0252"
"7.0000","11.6701","0.0281"
"8.4000","14.0032","0.0303"
"9.8000","16.3367","0.0319"
"11.2000","18.6696","0.0332"
"12.6000","21.0035","0.0344"
"14.0000","23.3365","0.0353"
"15.4000","25.6700","0.0361"
"16.8000","28.0032","0.0368"
"18.2000","30.3365","0.0374"
"19.6000","32.6699","0.0380"
"21.0000","35.0032","0.0384"
"22.4000","37.3364","0.0389"
"23.8000","39.6700","0.0393"
"25.2000","42.0032","0.0390"
"26.6000","44.3367","0.0395"
"28.0000","46.6699","0.0401"
"29.4000","49.0033","0.0405"
"30.8000","51.3367","0.0409"
"32.2000","53.6699","0.0413"
"33.6000","56.0033","0.0417"
"35.0000","58.3368","0.0421"
"36.4000","60.6699","0.0425"
"37.8000","63.0035","0.0430"
"39.2000","65.3365","0.0435"
"40.6000","67.6700","0.0440"
"42.0000","70.0032","0.0446"
"43.4000","72.3367","0.0451"
"44.8000","74.6699","0.0457"
"46.2000","77.0033","0.0463"
"47.6000","79.3366","0.0468"
"49.0000","81.6700","0.0474"
"50.4000","84.0033","0.0480"
"51.8000","86.3366","0.0485"
"53.2000","88.6700","0.0490"
"54.6000","91.0032","0.0495"
"56.0000","93.3365","0.0501"
"57.4000","95.6701","0.0507"
"58.8000","98.0031","0.0513"
"60.2000","100.3368","0.0519"
"61.6000","102.6699","0.0525"
"63.0000","105.0033","0.0531"
"64.4000","107.3365","0.0536"
"65.8000","109.6698","0.0541"
"67.2000","112.0032","0.0545"
"68.6000","114.3367","0.0550"
"70.0000","116.6699","0.0555"
"71.4000","119.0033","0.0560"
"72.8000","121.3365","0.0565"
"74.2000","123.6700","0.0571"
"75.6000","126.0032","0.0575"
"77.0000","128.3366","0.0579"
"78.4000","130.6698","0.0583"
"79.8000","133.0034","0.0588"
"81.2000","135.3365","0.0592"
"82.6000","137.6700","0.0597"
"84.0000","140.0033","0.0603"
"85.4000","142.3366","0.0609"
"86.8000","144.6700","0.0612"
"88.2000","147.0033","0.0615"
"89.6000","149.3365","0.0618"
"91.0000","151.6701","0.0621"
"92.4000","154.0032","0.0624"
"93.8000","156.3368","0.0626"
"95.2000","158.6700","0.0631"
"96.6000","161.0032","0.0636"
"98.0000","163.3366","0.0641"
"99.4000","165.6698","0.0644"
"100.8000","168.0032","0.0644"
"102.2000","170.3368","0.0647"
"103.6000","172.6698","0.0652"
"105.0000","175.0034","0.0657"
"106.4000","177.3365","0.0662"
"107.8000","179.6700","0.0664"
"109.2000","182.0032","0.0662"
"110.6000","184.3366","0.0659"
"112.0000","186.6698","0.0661"
"113.4000","189.0034","0.0667"
"114.8000","191.3365","0.0673"
"116.2000","193.6700","0.0677"
"117.6000","196.0033","0.0680"
"119.0000","198.3366","0.0681"
"120.4000","200.6700","0.0682"
"121.8000","203.0033","0.0683"
"123.2000","205.3365","0.0687"
"124.6000","207.6701","0.0694"
"126.0000","210.0032","0.0698"
"127.4000","212.3366","0.0699"
"128.8000","214.6700","0.0703"
"130.2000","217.0032","0.0711"
"131.6000","219.3366","0.0722"
"133.0000","221.6698","0.0730"
"134.4000","224.0032","0.0737"
"135.8000","226.3366","0.0745"
"137.2000","228.6698","0.0752"
"138.6000","231.0034","0.0761"
"140.0000","233.3365","0.0770"
"141.4000","235.6700","0.0777"
"142.8000","238.0032","0.0785"
"144.2000","240.3366","0.0791"
"145.6000","242.6698","0.0797"
"147.0000","245.0034","0.0802"
"148.4000","247.3365","0.0808"
"149.8000","249.6700","0.0814"
"151.2000","252.0034","0.0817"
"152.6000","254.3366","0.0816"
"154.0000","256.6700","0.0821"
"155.4000","259.0033","0.0830"
"156.8000","261.3365","0.0841"
"158.2000","263.6700","0.0851"
"159.6000","266.0032","0.0860"
"161.0000","268.3366","0.0869"
"162.4000","270.6698","0.0845"
"163.8000","273.0033","0.0806"
"165.2000","275.3366","0.0809"
"166.6000","277.6698","0.0816"
"168.0000","280.0032","0.0824"
"169.4000","282.3366","0.0832"
"170.8000","284.6699","0.0840"
"172.2000","287.0033","0.0846"
"173.6000","289.3366","0.0852"
"175.0000","291.6701","0.0856"
"176.4000","294.0033","0.0861"
"177.8000","296.3366","0.0866"
"179.2000","298.6698","0.0871"
"180.6000","301.0034","0.0876"
"182.0000","303.3365","0.0885"
"183.4000","305.6699","0.0893"
"184.8000","308.0033","0.0902"
"186.2000","310.3366","0.0913"
"187.6000","312.6700","0.0922"
"189.0000","315.0031","0.0929"
"190.4000","317.3365","0.0936"
"191.8000","319.6701","0.0944"
"193.2000","322.0030","0.0954"
"194.6000","324.3367","0.0962"
"196.0000","326.6698","0.0973"
"197.4000","329.0033","0.0984"
"198.8000","331.3366","0.0991"
"200.2000","333.6700","0.0999"
"201.6000","336.0031","0.1009"
"203.0000","338.3367","0.1015"
"204.4000","340.6700","0.1008"
"205.8000","343.0034","0.1002"
"207.2000","345.3365","0.1002"
"208.6000","347.6700","0.1005"
"210.0000","350.0031","0.1013"
"211.4000","352.3366","0.1009"
"212.8000","354.6698","0.1013"
"214.2000","357.0034","0.1021"
"215.6000","359.3365","0.1025"
"217.0000","361.6700","0.1036"
"218.4000","364.0033","0.1046"
"219.8000","366.3366","0.1053"
"221.2000","368.6700","0.1054"
"222.6000","371.0033","0.1054"
"224.0000","373.3365","0.1049"
"225.4000","375.6702","0.1042"
"226.8000","378.0031","0.0981"
"228.2000","380.3367","0.0935"
"229.6000","382.6700","0.0928"
"231.0000","385.0033","0.0929"
"232.4000","387.3365","0.0910"
"233.8000","389.6700","0.0835"
"235.2000","392.0033","0.0858"
"236.6000","394.3366","0.0884"
"238.0000","396.6698","0.0908"
"239.4000","399.0034","0.0929"
"240.8000","401.3366","0.0946"
"242.2000","403.6700","0.0959"
"243.6000","406.0031","0.0969"
"245.0000","408.3368","0.0976"
"246.4000","410.6698","0.0981"
"247.8000","413.0034","0.0982"
"249.2000","415.3365","0.0961"
"250.6000","417.6700","0.0983"
"252.0000","420.0033","0.1001"
"253.4000","422.3366","0.0996"
"254.8000","424.6700","0.1000"
"256.2000","427.0033","0.1015"
"257.6000","429.3365","0.1028"
"259.0000","431.6700","0.1035"
"260.4000","434.0031","0.1043"
"261.8000","436.3368","0.1052"
"263.2000","438.6698","0.1060"
"264.6000","441.0031","0.1078"
"266.0000","443.3366","0.1103"
"267.4000","445.6700","0.1131"
"268.8000","448.0031","0.1160"
"270.2000","450.3366","0.1187"
"271.6000","452.6698","0.1213"
"273.0000","455.0033","0.1236"
"274.4000","457.3366","0.1258"
"275.8000","459.6700","0.1278"
"277.2000","462.0031","0.1296"
"278.6000","464.3366","0.1313"
"280.0000","466.6698","0.1326"
"281.4000","469.0034","0.1339"
"282.8000","471.3365","0.1351"
"284.2000","473.6700","0.1361"
"285.6000","476.0033","0.1370"
"287.0000","478.3366","0.1371"
"288.4000","480.6700","0.1364"
"289.8000","483.0033","0.1359"
"291.2000","485.3363","0.1354"
"292.6000","487.6701","0.1353"
"294.0000","490.0031","0.1359"
"295.4000","492.3368","0.1370"
"296.8000","494.6698","0.1383"
"298.2000","497.0033","0.1397"
"299.6000","499.3366","0.1410"
"301.0000","501.6699","0.1423"
"302.4000","504.0032","0.1438"
"303.8000","506.3367","0.1451"
"305.2000","508.6698","0.1463"
"306.6000","511.0033","0.1475"
"308.0000","513.3365","0.1484"
"309.4000","515.6700","0.1487"
"310.8000","518.0032","0.1486"
"312.2000","520.3365","0.1486"
"313.6000","522.6698","0.1491"
"315.0000","525.0034","0.1504"
"316.4000","527.3365","0.1519"
"317.8000","529.6699","0.1535"
"319.2000","532.0034","0.1543"
"320.6000","534.3367","0.1539"
"322.0000","536.6699","0.1523"
"323.4000","539.0032","0.1493"
"324.8000","541.3364","0.1467"
"326.2000","543.6700","0.1443"
"327.6000","546.0032","0.1346"
"329.0000","548.3368","0.1350"
"330.4000","550.6698","0.1376"
"331.8000","553.0032","0.1408"
"333.2000","555.3364","0.1437"
"334.6000","557.6700","0.1348"
"336.0000","560.0032","0.1261"
"337.4000","562.3367","0.1146"
"338.8000","564.6699","0.1162"
"340.2000","567.0032","0.1232"
"341.6000","569.3366","0.1315"
"343.0000","571.6699","0.1399"
"344.4000","574.0032","0.1482"
"345.8000","576.3364","0.1558"
"347.2000","578.6698","0.1628"
"348.6000","581.0034","0.1687"
"350.0000","583.3364","0.1736"
"351.4000","585.6699","0.1777"
"352.8000","588.0032","0.1813"
"354.2000","590.3367","0.1846"
"355.6000","592.6700","0.1875"
"357.0000","595.0031","0.1899"
"358.4000","597.3364","0.1919"
"359.8000","599.6700","0.1935"
"361.2000","602.0031","0.1947"
"362.6000","604.3365","0.1958"
"364.0000","606.6699","0.1970"
"365.4000","609.0034","0.1984"
"366.8000","611.3364","0.1996"
"368.2000","613.6699","0.2008"
"369.6000","616.0032","0.2020"
"371.0000","618.3367","0.2032"
"372.4000","620.6699","0.2043"
"373.8000","623.0032","0.2055"
"375.2000","625.3366","0.2068"
"376.6000","627.6699","0.2081"
"378.0000","630.0032","0.2096"
"379.4000","632.3365","0.2110"
"380.8000","634.6698","0.2126"
"382.2000","637.0034","0.2141"
"383.6000","639.3366","0.2155"
"385.0000","641.6699","0.2159"
"386.4000","644.0032","0.1391"
"387.8000","646.3365","0.1406"
"389.2000","648.6699","0.1436"
"390.6000","651.0032","0.1464"
"392.0000","653.3364","0.1489"
"393.4000","655.6700","0.1514"
"394.8000","658.0031","0.1536"
"396.2000","660.3367","0.1554"
"397.6000","662.6698","0.1569"
"399.0000","665.0034","0.1582"
"400.4000","667.3364","0.1594"
"401.8000","669.6699","0.1606"
"403.2000","672.0032","0.1617"
"404.6000","674.3367","0.1626"
"406.0000","676.6698","0.1634"
"407.4000","679.0032","0.1642"
"408.8000","681.3367","0.1650"
"410.2000","683.6699","0.1658"
"411.6000","686.0032","0.1667"
"413.0000","688.3365","0.1675"
"413.2500","688.7536","0.1004"