File: Force Calculations/Tensile Testing Results/Unbraided Nylon - 2.csv
Time,Displacement,Force
(s),(mm),(kN)
"0.0000","0.0000","0.0000"
"0.4000","0.6641","0.0085"
"0.8000","1.3361","0.0195"
"1.2000","2.0032","0.0306"
"1.6000","2.6696","0.0418"
"2.0000","3.3364","0.0531"
"2.4000","4.0031","0.0638"
"2.8000","4.6697","0.0718"
"3.2000","5.3364","0.0826"
"3.6000","6.0032","0.0905"
"4.0000","6.6696","0.0964"
"4.4000","7.3363","0.0974"
"4.8000","8.0029","0.0966"
"5.2000","8.6699","0.0958"
"5.6000","9.3367","0.0978"
"6.0000","10.0031","0.0975"
"6.4000","10.6697","0.0962"
"6.8000","11.3365","0.0997"
"7.2000","12.0032","0.0935"
"7.6000","12.6697","0.0968"
"8.0000","13.3364","0.0935"
"8.4000","14.0032","0.0963"
"8.8000","14.6697","0.0979"
"9.2000","15.3363","0.0942"
"9.6000","16.0031","0.0964"
"10.0000","16.6697","0.0931"
"10.4000","17.3365","0.0950"
"10.8000","18.0032","0.0929"
"11.2000","18.6696","0.0969"
"11.6000","19.3364","0.0941"
"12.0000","20.0031","0.0966"
"12.4000","20.6700","0.0904"
"12.8000","21.3364","0.0950"
"13.2000","22.0033","0.0908"
"13.6000","22.6697","0.0925"
"14.0000","23.3363","0.0931"
"14.4000","24.0031","0.0939"
"14.8000","24.6697","0.0961"
"15.2000","25.3365","0.0952"
"15.6000","26.0031","0.0960"
"16.0000","26.6696","0.0988"
"16.4000","27.3364","0.0996"
"16.8000","28.0031","0.1020"
"17.2000","28.6697","0.1003"
"17.6000","29.3364","0.1012"
"18.0000","30.0033","0.1025"
"18.4000","30.6697","0.1015"
"18.8000","31.3364","0.1035"
"19.2000","32.0031","0.1009"
"19.6000","32.6697","0.1030"
"20.0000","33.3365","0.1033"
"20.4000","34.0032","0.0999"
"20.8000","34.6696","0.1034"
"21.2000","35.3364","0.1012"
"21.6000","36.0031","0.1017"
"22.0000","36.6697","0.1028"
"22.4000","37.3365","0.0989"
"22.8000","38.0032","0.1056"
"23.2000","38.6697","0.1026"
"23.6000","39.3363","0.1040"
"24.0000","40.0029","0.1048"
"24.4000","40.6699","0.1024"
"24.8000","41.3365","0.1050"
"25.2000","42.0031","0.1067"
"25.6000","42.6696","0.1029"
"26.0000","43.3364","0.1062"
"26.4000","44.0032","0.1072"
"26.8000","44.6697","0.1022"
"27.2000","45.3364","0.1081"
"27.6000","46.0032","0.0984"
"28.0000","46.6699","0.1055"
"28.4000","47.3363","0.1076"
"28.8000","48.0031","0.1000"
"29.2000","48.6699","0.1079"
"29.6000","49.3365","0.1081"
"30.0000","50.0031","0.1031"
"30.4000","50.6696","0.1110"
"30.8000","51.3365","0.1028"
"31.2000","52.0031","0.1079"
"31.6000","52.6697","0.1089"
"32.0000","53.3365","0.1054"
"32.4000","54.0032","0.1090"
"32.8000","54.6697","0.1075"
"33.2000","55.3364","0.1072"
"33.6000","56.0031","0.1091"
"34.0000","56.6699","0.1083"
"34.4000","57.3365","0.1085"
"34.8000","58.0031","0.1076"
"35.2000","58.6696","0.1102"
"35.6000","59.3364","0.1069"
"36.0000","60.0032","0.1091"
"36.4000","60.6697","0.1109"
"36.8000","61.3364","0.1092"
"37.2000","62.0032","0.1034"
"37.6000","62.6696","0.1048"
"38.0000","63.3363","0.1088"
"38.4000","64.0029","0.1099"
"38.8000","64.6699","0.1056"
"39.2000","65.3365","0.1082"
"39.6000","66.0031","0.1068"
"40.0000","66.6696","0.1096"
"40.4000","67.3365","0.1077"
"40.8000","68.0032","0.1077"
"41.2000","68.6699","0.1109"
"41.6000","69.3364","0.1073"
"42.0000","70.0031","0.1045"
"42.4000","70.6697","0.1129"
"42.8000","71.3364","0.1120"
"43.2000","72.0031","0.1039"
"43.6000","72.6699","0.1126"
"44.0000","73.3365","0.1142"
"44.4000","74.0031","0.1082"
"44.8000","74.6696","0.1110"
"45.2000","75.3365","0.1154"
"45.6000","76.0033","0.1127"
"46.0000","76.6699","0.1112"
"46.4000","77.3364","0.1160"
"46.8000","78.0031","0.1160"
"47.2000","78.6697","0.1119"
"47.6000","79.3364","0.1158"
"48.0000","80.0031","0.1196"
"48.4000","80.6699","0.1174"
"48.8000","81.3365","0.1160"
"49.2000","82.0031","0.1176"
"49.6000","82.6696","0.1174"
"50.0000","83.3364","0.1134"
"50.4000","84.0031","0.1166"
"50.8000","84.6699","0.1158"
"51.2000","85.3365","0.1140"
"51.6000","86.0032","0.1186"
"52.0000","86.6697","0.1158"
"52.4000","87.3364","0.1152"
"52.8000","88.0031","0.1194"
"53.2000","88.6699","0.1193"
"53.6000","89.3365","0.1157"
"54.0000","90.0031","0.1181"
"54.4000","90.6696","0.1212"
"54.8000","91.3365","0.1200"
"55.2000","92.0031","0.1199"
"55.6000","92.6697","0.1224"
"56.0000","93.3364","0.1201"
"56.4000","94.0031","0.1219"
"56.8000","94.6697","0.1253"
"57.2000","95.3364","0.1199"
"57.6000","96.0031","0.1250"
"58.0000","96.6700","0.1275"
"58.4000","97.3365","0.1215"
"58.8000","98.0031","0.1265"
"59.2000","98.6696","0.1282"
"59.6000","99.3365","0.1246"
"60.0000","100.0032","0.1283"
"60.4000","100.6697","0.1290"
"60.8000","101.3365","0.1276"
"61.2000","102.0032","0.1269"
"61.6000","102.6697","0.1294"
"62.0000","103.3363","0.1311"
"62.4000","104.0031","0.1290"
"62.8000","104.6697","0.1306"
"63.2000","105.3365","0.1337"
"63.6000","106.0032","0.1311"
"64.0000","106.6697","0.1314"
"64.4000","107.3365","0.1329"
"64.8000","108.0032","0.1336"
"65.2000","108.6697","0.1351"
"65.6000","109.3364","0.1339"
"66.0000","110.0032","0.1339"
"66.4000","110.6697","0.1367"
"66.8000","111.3363","0.1417"
"67.2000","112.0031","0.1396"
"67.6000","112.6699","0.1403"
"68.0000","113.3364","0.1455"
"68.4000","114.0031","0.1449"
"68.8000","114.6696","0.1465"
"69.2000","115.3364","0.1478"
"69.6000","116.0031","0.1459"
"70.0000","116.6699","0.1457"
"70.4000","117.3364","0.1439"
"70.8000","118.0031","0.1465"
"71.2000","118.6699","0.1462"
"71.6000","119.3364","0.1395"
"72.0000","120.0031","0.1458"
"72.4000","120.6698","0.1469"
"72.8000","121.3365","0.1461"
"73.2000","122.0031","0.1527"
"73.6000","122.6697","0.1577"
"74.0000","123.3364","0.1574"
"74.4000","124.0031","0.1585"
"74.8000","124.6697","0.1591"
"75.2000","125.3364","0.1604"
"75.6000","126.0032","0.1628"
"76.0000","126.6697","0.1488"
"76.4000","127.3364","0.1482"
"76.8000","128.0031","0.1500"
"77.2000","128.6700","0.1440"
"77.6000","129.3366","0.1464"
"78.0000","130.0032","0.1485"
"78.4000","130.6697","0.1460"
"78.8000","131.3365","0.1399"
"79.2000","132.0032","0.1486"
"79.6000","132.6698","0.1393"
"80.0000","133.3365","0.1439"
"80.4000","134.0032","0.1424"
"80.8000","134.6697","0.1422"
"81.2000","135.3362","0.1409"
"81.6000","136.0029","0.1436"
"82.0000","136.6698","0.1452"
"82.4000","137.3365","0.1476"
"82.8000","138.0032","0.1414"
"83.2000","138.6698","0.1430"
"83.6000","139.3364","0.1521"
"84.0000","140.0032","0.1518"
"84.4000","140.6697","0.1487"
"84.8000","141.3365","0.1542"
"85.2000","142.0032","0.1520"
"85.6000","142.6698","0.1452"
"86.0000","143.3362","0.1523"
"86.4000","144.0030","0.1584"
"86.8000","144.6698","0.1589"
"87.2000","145.3365","0.1579"
"87.6000","146.0030","0.1606"
"88.0000","146.6696","0.1658"
"88.4000","147.3364","0.1695"
"88.8000","148.0030","0.1659"
"89.2000","148.6697","0.1696"
"89.6000","149.3364","0.1767"
"90.0000","150.0032","0.1795"
"90.4000","150.6698","0.1804"
"90.8000","151.3364","0.1803"
"91.2000","152.0030","0.1792"
"91.6000","152.6698","0.1771"
"92.0000","153.3366","0.1796"
"92.4000","154.0030","0.1873"
"92.8000","154.6696","0.1913"
"93.2000","155.3365","0.1920"
"93.6000","156.0032","0.1916"
"94.0000","156.6697","0.1934"
"94.4000","157.3364","0.2038"
"94.8000","158.0032","0.2098"
"95.2000","158.6698","0.2039"
"95.6000","159.3362","0.1835"
"96.0000","160.0030","0.1964"
"96.4000","160.6698","0.2019"
"96.8000","161.3365","0.2040"
"97.2000","162.0030","0.2146"
"97.6000","162.6697","0.2002"
"98.0000","163.3365","0.1910"
"98.4000","164.0031","0.2015"
"98.8000","164.6697","0.2116"
"99.2000","165.3364","0.2202"
"99.6000","166.0032","0.2272"
"100.0000","166.6697","0.2329"
"100.2980","167.1673","0.1384"