File: Force Calculations/Tensile Testing Results/Unbraided Nylon - 1.csv
Time,Displacement,Force
(s),(mm),(kN)
"0.0000","0.0000","0.0000"
"0.4000","0.6635","0.0032"
"0.8000","1.3357","0.0057"
"1.2000","2.0031","0.0078"
"1.6000","2.6697","0.0095"
"2.0000","3.3365","0.0110"
"2.4000","4.0032","0.0124"
"2.8000","4.6697","0.0137"
"3.2000","5.3363","0.0149"
"3.6000","6.0031","0.0162"
"4.0000","6.6697","0.0175"
"4.4000","7.3365","0.0189"
"4.8000","8.0032","0.0207"
"5.2000","8.6697","0.0226"
"5.6000","9.3365","0.0250"
"6.0000","10.0031","0.0281"
"6.4000","10.6697","0.0320"
"6.8000","11.3365","0.0370"
"7.2000","12.0032","0.0433"
"7.6000","12.6696","0.0501"
"8.0000","13.3364","0.0555"
"8.4000","14.0029","0.0596"
"8.8000","14.6699","0.0641"
"9.2000","15.3367","0.0683"
"9.6000","16.0031","0.0716"
"10.0000","16.6697","0.0754"
"10.4000","17.3365","0.0755"
"10.8000","18.0031","0.0810"
"11.2000","18.6697","0.0848"
"11.6000","19.3364","0.0873"
"12.0000","20.0032","0.0897"
"12.4000","20.6697","0.0858"
"12.8000","21.3364","0.0893"
"13.2000","22.0031","0.0915"
"13.6000","22.6699","0.0895"
"14.0000","23.3365","0.0919"
"14.4000","24.0032","0.0947"
"14.8000","24.6696","0.0952"
"15.2000","25.3364","0.0963"
"15.6000","26.0031","0.0942"
"16.0000","26.6699","0.0970"
"16.4000","27.3365","0.1001"
"16.8000","28.0032","0.0963"
"17.2000","28.6699","0.0960"
"17.6000","29.3364","0.1002"
"18.0000","30.0031","0.1015"
"18.4000","30.6699","0.0947"
"18.8000","31.3365","0.1001"
"19.2000","32.0032","0.1032"
"19.6000","32.6697","0.1016"
"20.0000","33.3364","0.1007"
"20.4000","34.0031","0.1024"
"20.8000","34.6699","0.1025"
"21.2000","35.3365","0.1033"
"21.6000","36.0032","0.1042"
"22.0000","36.6697","0.1018"
"22.4000","37.3364","0.1024"
"22.8000","38.0032","0.1031"
"23.2000","38.6699","0.1027"
"23.6000","39.3365","0.1027"
"24.0000","40.0032","0.1028"
"24.4000","40.6697","0.1057"
"24.8000","41.3365","0.0991"
"25.2000","42.0032","0.1021"
"25.6000","42.6699","0.1056"
"26.0000","43.3365","0.1007"
"26.4000","44.0032","0.1053"
"26.8000","44.6697","0.1065"
"27.2000","45.3363","0.1089"
"27.6000","46.0031","0.1052"
"28.0000","46.6699","0.1073"
"28.4000","47.3365","0.1109"
"28.8000","48.0031","0.1144"
"29.2000","48.6696","0.1145"
"29.6000","49.3365","0.1094"
"30.0000","50.0031","0.1137"
"30.4000","50.6697","0.1170"
"30.8000","51.3365","0.1171"
"31.2000","52.0032","0.1171"
"31.6000","52.6699","0.1129"
"32.0000","53.3364","0.1161"
"32.4000","54.0031","0.1192"
"32.8000","54.6699","0.1212"
"33.2000","55.3365","0.1217"
"33.6000","56.0032","0.1198"
"34.0000","56.6697","0.1167"
"34.4000","57.3364","0.1190"
"34.8000","58.0031","0.1204"
"35.2000","58.6697","0.1215"
"35.6000","59.3365","0.1169"
"36.0000","60.0032","0.1189"
"36.4000","60.6697","0.1247"
"36.8000","61.3364","0.1280"
"37.2000","62.0031","0.1279"
"37.6000","62.6700","0.1254"
"38.0000","63.3365","0.1282"
"38.4000","64.0031","0.1308"
"38.8000","64.6696","0.1310"
"39.2000","65.3365","0.1315"
"39.6000","66.0032","0.1320"
"40.0000","66.6699","0.1283"
"40.4000","67.3365","0.1235"
"40.8000","68.0031","0.1251"
"41.2000","68.6697","0.1228"
"41.6000","69.3364","0.1203"
"42.0000","70.0031","0.1221"
"42.4000","70.6700","0.1216"
"42.8000","71.3365","0.1205"
"43.2000","72.0031","0.1224"
"43.6000","72.6697","0.1167"
"44.0000","73.3365","0.1219"
"44.4000","74.0031","0.1225"
"44.8000","74.6699","0.1179"
"45.2000","75.3364","0.1214"
"45.6000","76.0032","0.1221"
"46.0000","76.6697","0.1211"
"46.4000","77.3364","0.1242"
"46.8000","78.0031","0.1262"
"47.2000","78.6699","0.1185"
"47.6000","79.3366","0.1246"
"48.0000","80.0031","0.1251"
"48.4000","80.6696","0.1246"
"48.8000","81.3364","0.1254"
"49.2000","82.0032","0.1262"
"49.6000","82.6699","0.1290"
"50.0000","83.3364","0.1278"
"50.4000","84.0032","0.1254"
"50.8000","84.6697","0.1324"
"51.2000","85.3363","0.1308"
"51.6000","86.0032","0.1307"
"52.0000","86.6699","0.1363"
"52.4000","87.3365","0.1343"
"52.8000","88.0031","0.1306"
"53.2000","88.6696","0.1365"
"53.6000","89.3365","0.1340"
"54.0000","90.0032","0.1345"
"54.4000","90.6699","0.1378"
"54.8000","91.3365","0.1398"
"55.2000","92.0032","0.1375"
"55.6000","92.6697","0.1397"
"56.0000","93.3364","0.1395"
"56.4000","94.0031","0.1397"
"56.8000","94.6700","0.1419"
"57.2000","95.3367","0.1380"
"57.6000","96.0031","0.1414"
"58.0000","96.6697","0.1428"
"58.4000","97.3365","0.1377"
"58.8000","98.0032","0.1445"
"59.2000","98.6699","0.1455"
"59.6000","99.3364","0.1428"
"60.0000","100.0032","0.1479"
"60.4000","100.6697","0.1465"
"60.8000","101.3363","0.1469"
"61.2000","102.0031","0.1530"
"61.6000","102.6700","0.1531"
"62.0000","103.3365","0.1543"
"62.4000","104.0029","0.1574"
"62.8000","104.6697","0.1550"
"63.2000","105.3364","0.1578"
"63.6000","106.0032","0.1611"
"64.0000","106.6699","0.1550"
"64.4000","107.3365","0.1611"
"64.8000","108.0031","0.1589"
"65.2000","108.6697","0.1562"
"65.6000","109.3364","0.1595"
"66.0000","110.0031","0.1647"
"66.4000","110.6699","0.1622"
"66.8000","111.3365","0.1520"
"67.2000","112.0031","0.1539"
"67.6000","112.6696","0.1595"
"68.0000","113.3365","0.1566"
"68.4000","114.0032","0.1501"
"68.8000","114.6697","0.1584"
"69.2000","115.3364","0.1620"
"69.6000","116.0032","0.1518"
"70.0000","116.6697","0.1557"
"70.4000","117.3364","0.1514"
"70.8000","118.0031","0.1535"
"71.2000","118.6699","0.1533"
"71.6000","119.3365","0.1521"
"72.0000","120.0031","0.1537"
"72.4000","120.6696","0.1569"
"72.8000","121.3365","0.1469"
"73.2000","122.0031","0.1451"
"73.6000","122.6697","0.1495"
"74.0000","123.3365","0.1452"
"74.4000","124.0031","0.1454"
"74.8000","124.6697","0.1448"
"75.2000","125.3364","0.1533"
"75.6000","126.0032","0.1488"
"76.0000","126.6698","0.1463"
"76.4000","127.3365","0.1505"
"76.8000","128.0031","0.1535"
"77.2000","128.6697","0.1588"
"77.6000","129.3365","0.1560"
"78.0000","130.0030","0.1523"
"78.4000","130.6697","0.1604"
"78.8000","131.3364","0.1627"
"79.2000","132.0032","0.1596"
"79.6000","132.6698","0.1575"
"80.0000","133.3362","0.1617"
"80.4000","134.0032","0.1602"
"80.8000","134.6698","0.1563"
"81.2000","135.3365","0.1632"
"81.6000","136.0032","0.1617"
"82.0000","136.6697","0.1661"
"82.4000","137.3365","0.1555"
"82.8000","138.0032","0.1611"
"83.2000","138.6698","0.1661"
"83.6000","139.3365","0.1557"
"84.0000","140.0032","0.1636"
"84.4000","140.6698","0.1596"
"84.8000","141.3364","0.1600"
"85.2000","142.0031","0.1570"
"85.6000","142.6698","0.1624"
"86.0000","143.3365","0.1627"
"86.4000","144.0030","0.1559"
"86.8000","144.6697","0.1625"
"87.2000","145.3365","0.1633"
"87.6000","146.0032","0.1606"
"88.0000","146.6698","0.1537"
"88.4000","147.3365","0.1595"
"88.8000","148.0033","0.1514"
"89.2000","148.6697","0.1585"
"89.6000","149.3364","0.1639"
"90.0000","150.0032","0.1591"
"90.4000","150.6698","0.1556"
"90.8000","151.3366","0.1639"
"91.2000","152.0032","0.1510"
"91.6000","152.6697","0.1560"
"92.0000","153.3365","0.1579"
"92.4000","154.0032","0.1538"
"92.8000","154.6697","0.1611"
"93.2000","155.3365","0.1513"
"93.6000","156.0033","0.1542"
"94.0000","156.6697","0.1572"
"94.4000","157.3364","0.1618"
"94.8000","158.0031","0.1649"
"95.2000","158.6700","0.1647"
"95.6000","159.3365","0.1678"
"96.0000","160.0030","0.1707"
"96.4000","160.6697","0.1679"
"96.8000","161.3364","0.1698"
"97.2000","162.0030","0.1773"
"97.6000","162.6698","0.1639"
"98.0000","163.3365","0.1633"
"98.4000","164.0032","0.1698"
"98.8000","164.6698","0.1650"
"99.2000","165.3364","0.1707"
"99.6000","166.0030","0.1699"
"100.0000","166.6698","0.1616"
"100.4000","167.3365","0.1723"
"100.8000","168.0032","0.1769"
"101.2000","168.6694","0.1724"
"101.6000","169.3364","0.1783"
"102.0000","170.0032","0.1745"
"102.4000","170.6697","0.1799"
"102.8000","171.3364","0.1805"
"103.2000","172.0032","0.1803"
"103.6000","172.6697","0.1788"
"104.0000","173.3362","0.1818"
"104.4000","174.0030","0.1889"
"104.8000","174.6698","0.1920"
"105.2000","175.3365","0.1855"
"105.6000","176.0032","0.1933"
"106.0000","176.6697","0.1963"
"106.4000","177.3365","0.1904"
"106.8000","178.0030","0.1982"
"107.2000","178.6698","0.2018"
"107.6000","179.3364","0.2031"
"108.0000","180.0032","0.2048"
"108.4000","180.6700","0.1684"
"108.8000","181.3364","0.1580"
"109.2000","182.0030","0.1617"
"109.6000","182.6698","0.1665"
"110.0000","183.3365","0.1591"
"110.4000","184.0030","0.1676"
"110.8000","184.6696","0.1784"
"111.2000","185.3364","0.1798"
"111.6000","186.0032","0.1864"
"112.0000","186.6697","0.1985"
"112.4000","187.3365","0.1940"
"112.8000","188.0033","0.1901"
"113.2000","188.6698","0.1667"
"113.6000","189.3362","0.1753"
"114.0000","190.0032","0.1590"
"114.4000","190.6698","0.1678"
"114.8000","191.3365","0.1773"
"115.2000","192.0030","0.1770"
"115.6000","192.6696","0.1746"
"116.0000","193.3362","0.1870"
"116.4000","194.0031","0.1941"
"116.8000","194.6697","0.2022"
"117.2000","195.3364","0.2137"
"117.6000","196.0032","0.2242"
"118.0000","196.6698","0.2324"
"118.4000","197.3364","0.2358"
"118.8000","198.0030","0.2435"
"119.0580","198.4341","0.1438"