File: Force Calculations/Tensile Testing Results/Unbraided - 1.csv
Time,Displacement,Force
(s),(mm),(kN)
"0.0000","0.0000","0.0000"
"1.2000","2.0031","0.0024"
"2.4000","4.0031","0.0049"
"3.6000","6.0031","0.0070"
"4.8000","8.0031","0.0087"
"6.0000","10.0032","0.0101"
"7.2000","12.0029","0.0114"
"8.4000","14.0031","0.0125"
"9.6000","16.0031","0.0134"
"10.8000","18.0032","0.0143"
"12.0000","20.0031","0.0151"
"13.2000","22.0032","0.0158"
"14.4000","24.0031","0.0165"
"15.6000","26.0032","0.0171"
"16.8000","28.0029","0.0177"
"18.0000","30.0031","0.0182"
"19.2000","32.0032","0.0187"
"20.4000","34.0032","0.0192"
"21.6000","36.0031","0.0197"
"22.8000","38.0031","0.0201"
"24.0000","40.0031","0.0205"
"25.2000","42.0032","0.0209"
"26.4000","44.0031","0.0213"
"27.6000","46.0031","0.0217"
"28.8000","48.0031","0.0222"
"30.0000","50.0032","0.0225"
"31.2000","52.0031","0.0229"
"32.4000","54.0032","0.0233"
"33.6000","56.0031","0.0236"
"34.8000","58.0032","0.0240"
"36.0000","60.0031","0.0244"
"37.2000","62.0031","0.0247"
"38.4000","64.0032","0.0251"
"39.6000","66.0032","0.0254"
"40.8000","68.0029","0.0258"
"42.0000","70.0031","0.0261"
"43.2000","72.0031","0.0265"
"44.4000","74.0032","0.0268"
"45.6000","76.0031","0.0272"
"46.8000","78.0031","0.0275"
"48.0000","80.0032","0.0278"
"49.2000","82.0032","0.0282"
"50.4000","84.0031","0.0285"
"51.6000","86.0031","0.0289"
"52.8000","88.0031","0.0293"
"54.0000","90.0032","0.0297"
"55.2000","92.0031","0.0300"
"56.4000","94.0032","0.0304"
"57.6000","96.0032","0.0309"
"58.8000","98.0031","0.0313"
"60.0000","100.0031","0.0318"
"61.2000","102.0031","0.0322"
"62.4000","104.0031","0.0327"
"63.6000","106.0032","0.0332"
"64.8000","108.0029","0.0337"
"66.0000","110.0031","0.0341"
"67.2000","112.0031","0.0347"
"68.4000","114.0032","0.0352"
"69.6000","116.0029","0.0357"
"70.8000","118.0031","0.0363"
"72.0000","120.0031","0.0368"
"73.2000","122.0031","0.0374"
"74.4000","124.0031","0.0380"
"75.6000","126.0032","0.0387"
"76.8000","128.0031","0.0393"
"78.0000","130.0032","0.0399"
"79.2000","132.0030","0.0401"
"80.4000","134.0032","0.0369"
"81.6000","136.0029","0.0367"
"82.8000","138.0032","0.0370"
"84.0000","140.0030","0.0376"
"85.2000","142.0031","0.0382"
"86.4000","144.0030","0.0388"
"87.6000","146.0032","0.0395"
"88.8000","148.0030","0.0403"
"90.0000","150.0031","0.0411"
"91.2000","152.0030","0.0420"
"92.4000","154.0032","0.0429"
"93.6000","156.0029","0.0438"
"94.8000","158.0031","0.0447"
"96.0000","160.0030","0.0455"
"97.2000","162.0032","0.0463"
"98.4000","164.0029","0.0471"
"99.6000","166.0032","0.0479"
"100.8000","168.0030","0.0487"
"102.0000","170.0032","0.0494"
"103.2000","172.0031","0.0501"
"104.4000","174.0030","0.0507"
"105.6000","176.0030","0.0512"
"106.8000","178.0032","0.0513"
"108.0000","180.0031","0.0512"
"109.2000","182.0030","0.0514"
"110.4000","184.0032","0.0524"
"111.6000","186.0031","0.0532"
"112.8000","188.0030","0.0537"
"114.0000","190.0030","0.0538"
"115.2000","192.0030","0.0540"
"116.4000","194.0032","0.0548"
"117.6000","196.0030","0.0558"
"118.8000","198.0030","0.0569"
"120.0000","200.0032","0.0579"
"121.2000","202.0032","0.0589"
"122.4000","204.0030","0.0598"
"123.6000","206.0030","0.0607"
"124.8000","208.0031","0.0615"
"126.0000","210.0030","0.0624"
"127.2000","212.0029","0.0633"
"128.4000","214.0030","0.0641"
"129.6000","216.0031","0.0650"
"130.8000","218.0032","0.0658"
"132.0000","220.0029","0.0667"
"133.2000","222.0030","0.0676"
"134.4000","224.0030","0.0685"
"135.6000","226.0032","0.0694"
"136.8000","228.0030","0.0703"
"138.0000","230.0030","0.0711"
"139.2000","232.0032","0.0718"
"140.4000","234.0032","0.0725"
"141.6000","236.0030","0.0731"
"142.8000","238.0031","0.0736"
"144.0000","240.0030","0.0741"
"145.2000","242.0032","0.0746"
"146.4000","244.0032","0.0751"
"147.6000","246.0030","0.0757"
"148.8000","248.0032","0.0764"
"150.0000","250.0030","0.0771"
"151.2000","252.0030","0.0779"
"152.4000","254.0030","0.0787"
"153.6000","256.0031","0.0795"
"154.8000","258.0031","0.0800"
"156.0000","260.0030","0.0791"
"157.2000","262.0030","0.0796"
"158.4000","264.0031","0.0811"
"159.6000","266.0030","0.0826"
"160.8000","268.0030","0.0841"
"162.0000","270.0030","0.0855"
"163.2000","272.0030","0.0867"
"164.4000","274.0030","0.0878"
"165.6000","276.0030","0.0889"
"166.8000","278.0031","0.0900"
"168.0000","280.0032","0.0910"
"169.2000","282.0031","0.0919"
"170.4000","284.0029","0.0929"
"171.6000","286.0030","0.0938"
"172.8000","288.0030","0.0948"
"174.0000","290.0030","0.0958"
"175.2000","292.0030","0.0968"
"176.4000","294.0030","0.0977"
"177.6000","296.0030","0.0987"
"178.8000","298.0031","0.0995"
"180.0000","300.0029","0.1004"
"181.2000","302.0030","0.1012"
"182.4000","304.0030","0.1019"
"183.6000","306.0033","0.1027"
"184.8000","308.0031","0.1036"
"186.0000","310.0032","0.1045"
"187.2000","312.0030","0.1055"
"188.4000","314.0031","0.1066"
"189.6000","316.0030","0.1076"
"190.8000","318.0030","0.1087"
"192.0000","320.0031","0.1098"
"193.2000","322.0031","0.1108"
"194.4000","324.0030","0.1118"
"195.6000","326.0031","0.1128"
"196.8000","328.0030","0.1138"
"198.0000","330.0030","0.1148"
"199.2000","332.0030","0.1156"
"200.4000","334.0031","0.1166"
"201.6000","336.0031","0.1176"
"202.8000","338.0030","0.1189"
"204.0000","340.0029","0.1203"
"205.2000","342.0029","0.1219"
"206.4000","344.0030","0.1237"
"207.6000","346.0031","0.1255"
"208.8000","348.0030","0.1273"
"210.0000","350.0030","0.1291"
"211.2000","352.0031","0.1308"
"212.4000","354.0032","0.1324"
"213.6000","356.0030","0.1340"
"214.8000","358.0029","0.1355"
"216.0000","360.0030","0.1369"
"217.2000","362.0031","0.1379"
"218.4000","364.0031","0.1389"
"219.6000","366.0031","0.1399"
"220.8000","368.0030","0.1410"
"222.0000","370.0030","0.1422"
"223.2000","372.0030","0.1434"
"224.4000","374.0031","0.1446"
"225.6000","376.0031","0.1459"
"226.8000","378.0030","0.1472"
"228.0000","380.0029","0.1487"
"229.2000","382.0031","0.1502"
"230.4000","384.0029","0.1518"
"231.6000","386.0031","0.1534"
"232.8000","388.0030","0.1550"
"234.0000","390.0031","0.1564"
"235.2000","392.0030","0.1579"
"236.4000","394.0030","0.1591"
"237.6000","396.0029","0.1602"
"238.8000","398.0030","0.1612"
"240.0000","400.0030","0.1623"
"241.2000","402.0031","0.1634"
"242.4000","404.0030","0.1644"
"243.6000","406.0031","0.1653"
"244.8000","408.0030","0.1662"
"246.0000","410.0030","0.1673"
"247.2000","412.0029","0.1689"
"248.4000","414.0029","0.1707"
"249.6000","416.0030","0.1728"
"250.8000","418.0033","0.1749"
"252.0000","420.0031","0.1772"
"253.2000","422.0030","0.1795"
"254.4000","424.0030","0.1818"
"255.6000","426.0031","0.1842"
"256.8000","428.0030","0.1864"
"258.0000","430.0030","0.1886"
"259.2000","432.0031","0.1907"
"260.4000","434.0031","0.1927"
"261.6000","436.0030","0.1946"
"262.8000","438.0030","0.1964"
"264.0000","440.0030","0.1981"
"265.2000","442.0031","0.1997"
"266.4000","444.0030","0.2012"
"267.6000","446.0031","0.2028"
"268.8000","448.0030","0.2043"
"270.0000","450.0031","0.2060"
"271.2000","452.0030","0.2075"
"272.4000","454.0030","0.2091"
"273.6000","456.0032","0.2105"
"274.8000","458.0031","0.2118"
"276.0000","460.0031","0.2126"
"277.2000","462.0030","0.2125"
"278.4000","464.0031","0.2131"
"279.6000","466.0030","0.2152"
"280.8000","468.0030","0.2176"
"282.0000","470.0031","0.2200"
"283.2000","472.0031","0.2221"
"284.4000","474.0034","0.1384"
"285.6000","476.0031","0.1380"
"286.8000","478.0030","0.1402"
"288.0000","480.0031","0.1427"
"289.2000","482.0030","0.1453"
"290.4000","484.0030","0.1477"
"291.6000","486.0031","0.1501"
"292.8000","488.0031","0.1524"
"294.0000","490.0031","0.1545"
"295.2000","492.0030","0.1565"
"296.4000","494.0030","0.1582"
"297.6000","496.0031","0.1598"
"298.8000","498.0031","0.1611"
"300.0000","500.0032","0.1623"
"301.2000","502.0031","0.1634"
"302.4000","504.0031","0.1644"
"303.6000","506.0031","0.1654"
"304.8000","508.0031","0.1664"
"306.0000","510.0031","0.1674"
"307.2000","512.0031","0.1685"
"308.4000","514.0032","0.1696"
"309.6000","516.0031","0.1707"
"310.8000","518.0031","0.1717"
"312.0000","520.0031","0.1727"
"313.2000","522.0031","0.1737"
"314.4000","524.0030","0.1747"
"315.6000","526.0031","0.1757"
"316.8000","528.0032","0.1767"
"318.0000","530.0032","0.1776"
"319.2000","532.0031","0.1786"
"320.4000","534.0032","0.1796"
"321.6000","536.0031","0.1807"
"322.8000","538.0031","0.1817"
"324.0000","540.0029","0.1828"
"325.2000","542.0031","0.1839"
"326.4000","544.0031","0.1851"
"327.6000","546.0032","0.1861"
"328.8000","548.0029","0.1872"
"330.0000","550.0031","0.1882"
"331.2000","552.0031","0.1891"
"332.4000","554.0032","0.1900"
"333.6000","556.0030","0.1910"
"334.8000","558.0029","0.1920"
"336.0000","560.0031","0.1931"
"337.2000","562.0031","0.1942"
"338.4000","564.0031","0.1953"
"339.6000","566.0031","0.1963"
"340.8000","568.0031","0.1974"
"342.0000","570.0032","0.1984"
"343.1100","571.8541","0.1146"